wavelengths,fluxes
4020,1.21168
4029.2,1.51739
4038.4,1.48452
4047.6,1.40311
4056.8,1.16261
4066,1.30361
4075.2,1.57146
4084.4,1.88292
4093.6,1.66711
4102.8,1.54297
4112,1.60279
4121.2,1.51906
4130.4,1.68165
4139.6,1.84484
4148.8,1.59201
4158,1.49782
4167.2,1.83125
4176.4,1.69839
4185.6,1.5311
4194.8,1.35149
4204,1.56808
4213.2,1.54502
4222.4,1.5953
4231.6,1.42531
4240.8,1.47861
4250,1.32457
4259.2,1.38321
4268.4,1.3182
4277.6,1.35851
4286.8,1.45758
4296,1.44409
4305.2,1.45797
4314.4,1.56581
4323.6,1.39934
4332.8,1.45748
4342,1.34351
4351.2,1.5589
4360.4,1.43323
4369.6,1.47324
4378.8,1.33725
4388,1.53754
4397.2,1.54906
4406.4,1.61442
4415.6,1.48996
4424.8,1.44489
4434,1.3718
4443.2,1.38716
4452.4,1.49082
4461.6,1.49999
4470.8,1.35002
4480,1.37566
4489.2,1.37465
4498.4,1.36851
4507.6,1.40319
4516.8,1.35963
4526,1.33739
4535.2,1.30897
4544.4,1.32538
4553.6,1.30316
4562.8,1.28525
4572,1.20458
4581.2,1.38105
4590.4,1.2222
4599.6,1.29667
4608.8,1.39901
4618,1.36185
4627.2,1.32941
4636.4,1.30464
4645.6,1.37053
4654.8,1.32686
4664,1.3223
4673.2,1.28829
4682.4,1.28925
4691.6,1.24538
4700.8,1.19742
4710,1.28551
4719.2,1.19157
4728.4,1.19769
4737.6,1.23966
4746.8,1.16242
4756,1.10096
4765.2,1.1493
4774.4,1.10535
4783.6,1.166
4792.8,1.17062
4802,1.07289
4811.2,1.06631
4820.4,1.20167
4829.6,1.13447
4838.8,1.13091
4848,1.13628
4857.2,1.09302
4866.4,1.17981
4875.6,1.18736
4884.8,1.19058
4894,1.23277
4903.2,1.24189
4912.4,1.32894
4921.6,1.27274
4930.8,1.2344
4940,1.30388
4949.2,1.16718
4958.4,1.22694
4967.6,1.21856
4976.8,1.2844
4986,1.26951
4995.2,1.1759
5004.4,1.1717
5013.6,1.26139
5022.8,1.2052
5032,1.17695
5041.2,1.25861
5050.4,1.18754
5059.6,1.16945
5068.8,1.30759
5078,1.21365
5087.2,1.21563
5096.4,1.17274
5105.6,1.11737
5114.8,1.14068
5124,1.08768
5133.2,1.18668
5142.4,1.14264
5151.6,1.11156
5160.8,1.21895
5170,1.12519
5179.2,1.09749
5188.4,1.14192
5197.6,1.17364
5206.8,1.12621
5216,1.09942
5225.2,1.12826
5234.4,1.09378
5243.6,1.05628
5252.8,1.06311
5262,1.02923
5271.2,1.12544
5280.4,1.0807
5289.6,1.15138
5298.8,1.12164
5308,1.10864
5317.2,1.04502
5326.4,1.05307
5335.6,1.08753
5344.8,1.04444
5354,1.04047
5363.2,1.07058
5372.4,1.0211
5381.6,1.00186
5390.8,0.998986
5400,1.01358
5409.2,1.03136
5418.4,1.01849
5427.6,0.981342
5436.8,0.92483
5446,0.976042
5455.2,0.937798
5464.4,0.937496
5473.6,1.0242
5482.8,0.951022
5492,1.00064
5501.2,0.990602
5510.4,1.03773
5519.6,1.02532
5528.8,1.00803
5538,0.986843
5547.2,0.929996
5556.4,0.92687
5565.6,0.923431
5574.8,0.908201
5584,0.904647
5593.2,0.872313
5602.4,0.952677
5611.6,0.853507
5620.8,0.873418
5630,0.856805
5639.2,0.835736
5648.4,0.968382
5657.6,0.888603
5666.8,0.97626
5676,0.934895
5685.2,0.873654
5694.4,0.826395
5703.6,0.900558
5712.8,0.875019
5722,0.901343
5731.2,0.887521
5740.4,0.850813
5749.6,0.917177
5758.8,0.862361
5768,0.875514
5777.2,0.864448
5786.4,0.830615
5795.6,0.887063
5804.8,0.828893
5814,0.920362
5823.2,0.794278
5832.4,0.85645
5841.6,0.807861
5850.8,0.803905
5860,0.892269
5869.2,0.922101
5878.4,0.844788
5887.6,0.8665
5896.8,0.875313
5906,0.86752
5915.2,0.900316
5924.4,0.90593
5933.6,0.921526
5942.8,0.887925
5952,0.98863
5961.2,0.997041
5970.4,0.995013
5979.6,0.953352
5988.8,0.864862
5998,0.894344
6007.2,0.94594
6016.4,0.864012
6025.6,0.859334
6034.8,0.874514
6044,0.878522
6053.2,0.949791
6062.4,0.95165
6071.6,0.883246
6080.8,0.907182
6090,0.830802
6099.2,0.856091
6108.4,0.824668
6117.6,0.904554
6126.8,0.870866
6136,0.864299
6145.2,0.888548
6154.4,0.899249
6163.6,0.743073
6172.8,0.815482
6182,0.829689
6191.2,0.780181
6200.4,0.818398
6209.6,0.831033
6218.8,0.799227
6228,0.805597
6237.2,0.766942
6246.4,0.842548
6255.6,0.820412
6264.8,0.766564
6274,0.785685
6283.2,0.707502
6292.4,0.729268
6301.6,0.702472
6310.8,0.721531
6320,0.786623
6329.2,0.725232
6338.4,0.765825
6347.6,0.681905
6356.8,0.756949
6366,0.78018
6375.2,0.80352
6384.4,0.769173
6393.6,0.70613
6402.8,0.711479
6412,0.733397
6421.2,0.764801
6430.4,0.754274
6439.6,0.770277
6448.8,0.766963
6458,0.786168
6467.2,0.794629
6476.4,0.712178
6485.6,0.721175
6494.8,0.697741
6504,0.776798
6513.2,0.739119
6522.4,0.784647
6531.6,0.816296
6540.8,0.78676
6550,0.783205
6559.2,0.892507
6568.4,0.821259
6577.6,0.810087
6586.8,0.906411
6596,0.850774
6605.2,0.880948
6614.4,0.86824
6623.6,0.840297
6632.8,0.800899
6642,0.864661
6651.2,0.992718
6660.4,1.01095
6669.6,0.916964
6678.8,1.02099
6688,0.845266
6697.2,0.94169
6706.4,0.908884
6715.6,0.966933
6724.8,0.929989
6734,0.907602
6743.2,0.935932
6752.4,0.919445
6761.6,0.871361
6770.8,0.871623
6780,0.845049
6789.2,0.859364
6798.4,0.810418
6807.6,0.783944
6816.8,0.768444
6826,0.800855
6835.2,0.761445
6844.4,0.752768
6853.6,0.740933
6862.8,0.721959
6872,0.639734
6881.2,0.693873
6890.4,0.643618
6899.6,0.724173
6908.8,0.614499
6918,0.740416
6927.2,0.772876
6936.4,0.592629
6945.6,0.764444
6954.8,0.748684
6964,0.71752
6973.2,0.757778
6982.4,0.636465
6991.6,0.608721
7000.8,0.726882
7010,0.696786
7019.2,0.674893
7028.4,0.606994
7037.6,0.613974
7046.8,0.695376
7056,0.698215
7065.2,0.715666
7074.4,0.730903
7083.6,0.67231
7092.8,0.62613
7102,0.743164
7111.2,0.719762
7120.4,0.651902
7129.6,0.606642
7138.8,0.622742
7148,0.633809
7157.2,0.60563
7166.4,0.5998
7175.6,0.52265
7184.8,0.611106
7194,0.696771
7203.2,0.599707
7212.4,0.730015
7221.6,0.68949
7230.8,0.581295
7240,0.686265
7249.2,0.63111
7258.4,0.589534
7267.6,0.684062
7276.8,0.636935
7286,0.560687
7295.2,0.604145
7304.4,0.684315
7313.6,0.65441
7322.8,0.526171
7332,0.650488
7341.2,0.634638
7350.4,0.623139
7359.6,0.651964
7368.8,0.569613
7378,0.582058
7387.2,0.663643
7396.4,0.498428
7405.6,0.753574
7414.8,0.564409
7424,0.668535
7433.2,0.49088
7442.4,0.716814
7451.6,0.590657
7460.8,0.53703
7470,0.581019
7479.2,0.563581
7488.4,0.57011
7497.6,0.625515
7506.8,0.501861
7516,0.703319
7525.2,0.551599
7534.4,0.677183
7543.6,0.640486
7552.8,0.495573
7562,0.550327
7571.2,0.543789
7580.4,0.646206
7589.6,0.420443
7598.8,0.309511
7608,0.201786
7617.2,0.429787
7626.4,0.315044
7635.6,0.313795
7644.8,0.228157
7654,0.447669
7663.2,0.739849
7672.4,0.641662
7681.6,0.535283
7690.8,0.479355
7700,0.412678
7709.2,0.766613
7718.4,0.725005
7727.6,0.682981
7736.8,0.503685
7746,0.298218
7755.2,0.40491
7764.4,0.674135
7773.6,0.619676
7782.8,0.638521
7792,0.532325
7801.2,0.490299
7810.4,0.633066
7819.6,0.549933
7828.8,0.631351
7838,0.764203
7847.2,0.555084
7856.4,0.75092
7865.6,0.462103
7874.8,0.548449
7884,0.533834
7893.2,0.589393
7902.4,0.667611
7911.6,0.701754
7920.8,0.640439
7930,0.654761
7939.2,1.15867
7948.4,0.559549
7957.6,0.535479
7966.8,0.409228
7976,0.33115
7985.2,-0.195554
7994.4,0.381689
